Nr. of detectors, Nr. of user table parameter
1010    0
Det.no  Delta    Len2   Code     2theta
1        0.0   -1.8270    0     180.000
2        0.0    3.6000    0       0.001
3        0.0    1.0115    1     171.128
4        0.0    1.0041    1     170.826
5        0.0    1.0115    1     170.525
6        0.0    1.0041    1     170.223
7        0.0    1.0115    1     169.921
8        0.0    1.0041    1     169.619
9        0.0    1.0115    1     169.317
10       0.0    1.0041    1     169.015
11       0.0    1.0115    1     168.714
12       0.0    1.0041    1     168.412
13       0.0    1.0115    1     168.110
14       0.0    1.0041    1     167.808
15       0.0    1.0115    1     167.506
16       0.0    1.0041    1     167.204
17       0.0    1.0115    1     166.903
18       0.0    1.0041    1     166.601
19       0.0    1.0115    1     166.299
20       0.0    1.0041    1     165.997
21       0.0    1.0115    1     165.695
22       0.0    1.0041    1     165.393
23       0.0    1.0041    1     165.092
24       0.0    1.0041    1     165.092
25       0.0    1.0115    1     164.790
26       0.0    1.0115    1     164.790
27       0.0    1.0041    1     164.488
28       0.0    1.0041    1     164.488
29       0.0    1.0115    1     164.186
30       0.0    1.0115    1     164.186
31       0.0    1.0041    1     163.884
32       0.0    1.0041    1     163.884
33       0.0    1.0115    1     163.582
34       0.0    1.0115    1     163.582
35       0.0    1.0041    1     163.281
36       0.0    1.0041    1     163.281
37       0.0    1.0115    1     162.979
38       0.0    1.0115    1     162.979
39       0.0    1.0041    1     162.677
40       0.0    1.0041    1     162.677
41       0.0    1.0115    1     162.375
42       0.0    1.0115    1     162.375
43       0.0    1.0041    1     162.073
44       0.0    1.0041    1     162.073
45       0.0    1.0115    1     161.771
46       0.0    1.0115    1     161.771
47       0.0    1.0041    1     161.470
48       0.0    1.0041    1     161.470
49       0.0    1.0115    1     161.168
50       0.0    1.0115    1     161.168
51       0.0    1.0041    1     160.866
52       0.0    1.0041    1     160.866
53       0.0    1.0115    1     160.564
54       0.0    1.0115    1     160.564
55       0.0    1.0041    1     160.262
56       0.0    1.0041    1     160.262
57       0.0    1.0115    1     159.960
58       0.0    1.0115    1     159.960
59       0.0    1.0041    1     159.659
60       0.0    1.0041    1     159.659
61       0.0    1.0115    1     159.357
62       0.0    1.0115    1     159.357
63       0.0    1.0041    1     159.055
64       0.0    1.0041    1     159.055
65       0.0    1.0115    1     158.753
66       0.0    1.0115    1     158.753
67       0.0    1.0041    1     158.451
68       0.0    1.0041    1     158.451
69       0.0    1.0115    1     158.149
70       0.0    1.0115    1     158.149
71       0.0    1.0041    1     157.848
72       0.0    1.0041    1     157.848
73       0.0    1.0115    1     157.546
74       0.0    1.0115    1     157.546
75       0.0    1.0041    1     157.244
76       0.0    1.0041    1     157.244
77       0.0    1.0115    1     156.942
78       0.0    1.0115    1     156.942
79       0.0    1.0041    1     156.640
80       0.0    1.0041    1     156.640
81       0.0    1.0115    1     156.338
82       0.0    1.0115    1     156.338
83       0.0    1.0041    1     156.037
84       0.0    1.0041    1     156.037
85       0.0    1.0115    1     155.735
86       0.0    1.0115    1     155.735
87       0.0    1.0041    1     155.433
88       0.0    1.0041    1     155.433
89       0.0    1.0115    1     155.131
90       0.0    1.0115    1     155.131
91       0.0    1.0041    1     154.829
92       0.0    1.0041    1     154.829
93       0.0    1.0115    1     154.527
94       0.0    1.0115    1     154.527
95       0.0    1.0041    1     154.226
96       0.0    1.0041    1     154.226
97       0.0    1.0115    1     153.924
98       0.0    1.0115    1     153.924
99       0.0    1.0041    1     153.622
100      0.0    1.0041    1     153.622
101      0.0    1.0115    1     153.320
102      0.0    1.0115    1     153.320
103      0.0    1.0041    1     153.018
104      0.0    1.0041    1     153.018
105      0.0    1.0115    1     152.717
106      0.0    1.0115    1     152.717
107      0.0    1.0041    1     152.415
108      0.0    1.0041    1     152.415
109      0.0    1.0115    1     152.113
110      0.0    1.0115    1     152.113
111      0.0    1.0041    1     151.811
112      0.0    1.0041    1     151.811
113      0.0    1.0115    1     151.509
114      0.0    1.0115    1     151.509
115      0.0    1.0041    1     151.207
116      0.0    1.0041    1     151.207
117      0.0    1.0115    1     150.906
118      0.0    1.0115    1     150.906
119      0.0    1.0041    1     150.604
120      0.0    1.0041    1     150.604
121      0.0    1.0115    1     150.302
122      0.0    1.0115    1     150.302
123      0.0    1.0115    1     171.128
124      0.0    1.0041    1     170.826
125      0.0    1.0115    1     170.525
126      0.0    1.0041    1     170.223
127      0.0    1.0115    1     169.921
128      0.0    1.0041    1     169.619
129      0.0    1.0115    1     169.317
130      0.0    1.0041    1     169.015
131      0.0    1.0115    1     168.714
132      0.0    1.0041    1     168.412
133      0.0    1.0115    1     168.110
134      0.0    1.0041    1     167.808
135      0.0    1.0115    1     167.506
136      0.0    1.0041    1     167.204
137      0.0    1.0115    1     166.903
138      0.0    1.0041    1     166.601
139      0.0    1.0115    1     166.299
140      0.0    1.0041    1     165.997
141      0.0    1.0115    1     165.695
142      0.0    1.0041    1     165.393
143      0.0    1.0041    1     165.092
144      0.0    1.0041    1     165.092
145      0.0    1.0115    1     164.790
146      0.0    1.0115    1     164.790
147      0.0    1.0041    1     164.488
148      0.0    1.0041    1     164.488
149      0.0    1.0115    1     164.186
150      0.0    1.0115    1     164.186
151      0.0    1.0041    1     163.884
152      0.0    1.0041    1     163.884
153      0.0    1.0115    1     163.582
154      0.0    1.0115    1     163.582
155      0.0    1.0041    1     163.281
156      0.0    1.0041    1     163.281
157      0.0    1.0115    1     162.979
158      0.0    1.0115    1     162.979
159      0.0    1.0041    1     162.677
160      0.0    1.0041    1     162.677
161      0.0    1.0115    1     162.375
162      0.0    1.0115    1     162.375
163      0.0    1.0041    1     162.073
164      0.0    1.0041    1     162.073
165      0.0    1.0115    1     161.771
166      0.0    1.0115    1     161.771
167      0.0    1.0041    1     161.470
168      0.0    1.0041    1     161.470
169      0.0    1.0115    1     161.168
170      0.0    1.0115    1     161.168
171      0.0    1.0041    1     160.866
172      0.0    1.0041    1     160.866
173      0.0    1.0115    1     160.564
174      0.0    1.0115    1     160.564
175      0.0    1.0041    1     160.262
176      0.0    1.0041    1     160.262
177      0.0    1.0115    1     159.960
178      0.0    1.0115    1     159.960
179      0.0    1.0041    1     159.659
180      0.0    1.0041    1     159.659
181      0.0    1.0115    1     159.357
182      0.0    1.0115    1     159.357
183      0.0    1.0041    1     159.055
184      0.0    1.0041    1     159.055
185      0.0    1.0115    1     158.753
186      0.0    1.0115    1     158.753
187      0.0    1.0041    1     158.451
188      0.0    1.0041    1     158.451
189      0.0    1.0115    1     158.149
190      0.0    1.0115    1     158.149
191      0.0    1.0041    1     157.848
192      0.0    1.0041    1     157.848
193      0.0    1.0115    1     157.546
194      0.0    1.0115    1     157.546
195      0.0    1.0041    1     157.244
196      0.0    1.0041    1     157.244
197      0.0    1.0115    1     156.942
198      0.0    1.0115    1     156.942
199      0.0    1.0041    1     156.640
200      0.0    1.0041    1     156.640
201      0.0    1.0115    1     156.338
202      0.0    1.0115    1     156.338
203      0.0    1.0041    1     156.037
204      0.0    1.0041    1     156.037
205      0.0    1.0115    1     155.735
206      0.0    1.0115    1     155.735
207      0.0    1.0041    1     155.433
208      0.0    1.0041    1     155.433
209      0.0    1.0115    1     155.131
210      0.0    1.0115    1     155.131
211      0.0    1.0041    1     154.829
212      0.0    1.0041    1     154.829
213      0.0    1.0115    1     154.527
214      0.0    1.0115    1     154.527
215      0.0    1.0041    1     154.226
216      0.0    1.0041    1     154.226
217      0.0    1.0115    1     153.924
218      0.0    1.0115    1     153.924
219      0.0    1.0041    1     153.622
220      0.0    1.0041    1     153.622
221      0.0    1.0115    1     153.320
222      0.0    1.0115    1     153.320
223      0.0    1.0041    1     153.018
224      0.0    1.0041    1     153.018
225      0.0    1.0115    1     152.717
226      0.0    1.0115    1     152.717
227      0.0    1.0041    1     152.415
228      0.0    1.0041    1     152.415
229      0.0    1.0115    1     152.113
230      0.0    1.0115    1     152.113
231      0.0    1.0041    1     151.811
232      0.0    1.0041    1     151.811
233      0.0    1.0115    1     151.509
234      0.0    1.0115    1     151.509
235      0.0    1.0041    1     151.207
236      0.0    1.0041    1     151.207
237      0.0    1.0115    1     150.906
238      0.0    1.0115    1     150.906
239      0.0    1.0041    1     150.604
240      0.0    1.0041    1     150.604
241      0.0    1.0115    1     150.302
242      0.0    1.0115    1     150.302
243      0.0    1.0415    1     171.128
244      0.0    1.0341    1     170.826
245      0.0    1.0415    1     170.525
246      0.0    1.0341    1     170.223
247      0.0    1.0415    1     169.921
248      0.0    1.0341    1     169.619
249      0.0    1.0415    1     169.317
250      0.0    1.0341    1     169.015
251      0.0    1.0415    1     168.714
252      0.0    1.0341    1     168.412
253      0.0    1.0415    1     168.110
254      0.0    1.0341    1     167.808
255      0.0    1.0415    1     167.506
256      0.0    1.0341    1     167.204
257      0.0    1.0415    1     166.903
258      0.0    1.0341    1     166.601
259      0.0    1.0415    1     166.299
260      0.0    1.0341    1     165.997
261      0.0    1.0415    1     165.695
262      0.0    1.0341    1     165.393
263      0.0    1.0341    1     165.092
264      0.0    1.0341    1     165.092
265      0.0    1.0415    1     164.790
266      0.0    1.0415    1     164.790
267      0.0    1.0341    1     164.488
268      0.0    1.0341    1     164.488
269      0.0    1.0415    1     164.186
270      0.0    1.0415    1     164.186
271      0.0    1.0341    1     163.884
272      0.0    1.0341    1     163.884
273      0.0    1.0415    1     163.582
274      0.0    1.0415    1     163.582
275      0.0    1.0341    1     163.281
276      0.0    1.0341    1     163.281
277      0.0    1.0415    1     162.979
278      0.0    1.0415    1     162.979
279      0.0    1.0341    1     162.677
280      0.0    1.0341    1     162.677
281      0.0    1.0415    1     162.375
282      0.0    1.0415    1     162.375
283      0.0    1.0341    1     162.073
284      0.0    1.0341    1     162.073
285      0.0    1.0415    1     161.771
286      0.0    1.0415    1     161.771
287      0.0    1.0341    1     161.470
288      0.0    1.0341    1     161.470
289      0.0    1.0415    1     161.168
290      0.0    1.0415    1     161.168
291      0.0    1.0341    1     160.866
292      0.0    1.0341    1     160.866
293      0.0    1.0415    1     160.564
294      0.0    1.0415    1     160.564
295      0.0    1.0341    1     160.262
296      0.0    1.0341    1     160.262
297      0.0    1.0415    1     159.960
298      0.0    1.0415    1     159.960
299      0.0    1.0341    1     159.659
300      0.0    1.0341    1     159.659
301      0.0    1.0415    1     159.357
302      0.0    1.0415    1     159.357
303      0.0    1.0341    1     159.055
304      0.0    1.0341    1     159.055
305      0.0    1.0415    1     158.753
306      0.0    1.0415    1     158.753
307      0.0    1.0341    1     158.451
308      0.0    1.0341    1     158.451
309      0.0    1.0415    1     158.149
310      0.0    1.0415    1     158.149
311      0.0    1.0341    1     157.848
312      0.0    1.0341    1     157.848
313      0.0    1.0415    1     157.546
314      0.0    1.0415    1     157.546
315      0.0    1.0341    1     157.244
316      0.0    1.0341    1     157.244
317      0.0    1.0415    1     156.942
318      0.0    1.0415    1     156.942
319      0.0    1.0341    1     156.640
320      0.0    1.0341    1     156.640
321      0.0    1.0415    1     156.338
322      0.0    1.0415    1     156.338
323      0.0    1.0341    1     156.037
324      0.0    1.0341    1     156.037
325      0.0    1.0415    1     155.735
326      0.0    1.0415    1     155.735
327      0.0    1.0341    1     155.433
328      0.0    1.0341    1     155.433
329      0.0    1.0415    1     155.131
330      0.0    1.0415    1     155.131
331      0.0    1.0341    1     154.829
332      0.0    1.0341    1     154.829
333      0.0    1.0415    1     154.527
334      0.0    1.0415    1     154.527
335      0.0    1.0341    1     154.226
336      0.0    1.0341    1     154.226
337      0.0    1.0415    1     153.924
338      0.0    1.0415    1     153.924
339      0.0    1.0341    1     153.622
340      0.0    1.0341    1     153.622
341      0.0    1.0415    1     153.320
342      0.0    1.0415    1     153.320
343      0.0    1.0341    1     153.018
344      0.0    1.0341    1     153.018
345      0.0    1.0415    1     152.717
346      0.0    1.0415    1     152.717
347      0.0    1.0341    1     152.415
348      0.0    1.0341    1     152.415
349      0.0    1.0415    1     152.113
350      0.0    1.0415    1     152.113
351      0.0    1.0341    1     151.811
352      0.0    1.0341    1     151.811
353      0.0    1.0415    1     151.509
354      0.0    1.0415    1     151.509
355      0.0    1.0341    1     151.207
356      0.0    1.0341    1     151.207
357      0.0    1.0415    1     150.906
358      0.0    1.0415    1     150.906
359      0.0    1.0341    1     150.604
360      0.0    1.0341    1     150.604
361      0.0    1.0415    1     150.302
362      0.0    1.0415    1     150.302
363      0.0    1.0115    1     171.128
364      0.0    1.0041    1     170.826
365      0.0    1.0115    1     170.525
366      0.0    1.0041    1     170.223
367      0.0    1.0115    1     169.921
368      0.0    1.0041    1     169.619
369      0.0    1.0115    1     169.317
370      0.0    1.0041    1     169.015
371      0.0    1.0115    1     168.714
372      0.0    1.0041    1     168.412
373      0.0    1.0115    1     168.110
374      0.0    1.0041    1     167.808
375      0.0    1.0115    1     167.506
376      0.0    1.0041    1     167.204
377      0.0    1.0115    1     166.903
378      0.0    1.0041    1     166.601
379      0.0    1.0115    1     166.299
380      0.0    1.0041    1     165.997
381      0.0    1.0115    1     165.695
382      0.0    1.0041    1     165.393
383      0.0    1.0041    1     165.092
384      0.0    1.0041    1     165.092
385      0.0    1.0115    1     164.790
386      0.0    1.0115    1     164.790
387      0.0    1.0041    1     164.488
388      0.0    1.0041    1     164.488
389      0.0    1.0115    1     164.186
390      0.0    1.0115    1     164.186
391      0.0    1.0041    1     163.884
392      0.0    1.0041    1     163.884
393      0.0    1.0115    1     163.582
394      0.0    1.0115    1     163.582
395      0.0    1.0041    1     163.281
396      0.0    1.0041    1     163.281
397      0.0    1.0115    1     162.979
398      0.0    1.0115    1     162.979
399      0.0    1.0041    1     162.677
400      0.0    1.0041    1     162.677
401      0.0    1.0115    1     162.375
402      0.0    1.0115    1     162.375
403      0.0    1.0041    1     162.073
404      0.0    1.0041    1     162.073
405      0.0    1.0115    1     161.771
406      0.0    1.0115    1     161.771
407      0.0    1.0041    1     161.470
408      0.0    1.0041    1     161.470
409      0.0    1.0115    1     161.168
410      0.0    1.0115    1     161.168
411      0.0    1.0041    1     160.866
412      0.0    1.0041    1     160.866
413      0.0    1.0115    1     160.564
414      0.0    1.0115    1     160.564
415      0.0    1.0041    1     160.262
416      0.0    1.0041    1     160.262
417      0.0    1.0115    1     159.960
418      0.0    1.0115    1     159.960
419      0.0    1.0041    1     159.659
420      0.0    1.0041    1     159.659
421      0.0    1.0115    1     159.357
422      0.0    1.0115    1     159.357
423      0.0    1.0041    1     159.055
424      0.0    1.0041    1     159.055
425      0.0    1.0115    1     158.753
426      0.0    1.0115    1     158.753
427      0.0    1.0041    1     158.451
428      0.0    1.0041    1     158.451
429      0.0    1.0115    1     158.149
430      0.0    1.0115    1     158.149
431      0.0    1.0041    1     157.848
432      0.0    1.0041    1     157.848
433      0.0    1.0115    1     157.546
434      0.0    1.0115    1     157.546
435      0.0    1.0041    1     157.244
436      0.0    1.0041    1     157.244
437      0.0    1.0115    1     156.942
438      0.0    1.0115    1     156.942
439      0.0    1.0041    1     156.640
440      0.0    1.0041    1     156.640
441      0.0    1.0115    1     156.338
442      0.0    1.0115    1     156.338
443      0.0    1.0041    1     156.037
444      0.0    1.0041    1     156.037
445      0.0    1.0115    1     155.735
446      0.0    1.0115    1     155.735
447      0.0    1.0041    1     155.433
448      0.0    1.0041    1     155.433
449      0.0    1.0115    1     155.131
450      0.0    1.0115    1     155.131
451      0.0    1.0041    1     154.829
452      0.0    1.0041    1     154.829
453      0.0    1.0115    1     154.527
454      0.0    1.0115    1     154.527
455      0.0    1.0041    1     154.226
456      0.0    1.0041    1     154.226
457      0.0    1.0115    1     153.924
458      0.0    1.0115    1     153.924
459      0.0    1.0041    1     153.622
460      0.0    1.0041    1     153.622
461      0.0    1.0115    1     153.320
462      0.0    1.0115    1     153.320
463      0.0    1.0041    1     153.018
464      0.0    1.0041    1     153.018
465      0.0    1.0115    1     152.717
466      0.0    1.0115    1     152.717
467      0.0    1.0041    1     152.415
468      0.0    1.0041    1     152.415
469      0.0    1.0115    1     152.113
470      0.0    1.0115    1     152.113
471      0.0    1.0041    1     151.811
472      0.0    1.0041    1     151.811
473      0.0    1.0115    1     151.509
474      0.0    1.0115    1     151.509
475      0.0    1.0041    1     151.207
476      0.0    1.0041    1     151.207
477      0.0    1.0115    1     150.906
478      0.0    1.0115    1     150.906
479      0.0    1.0041    1     150.604
480      0.0    1.0041    1     150.604
481      0.0    1.0115    1     150.302
482      0.0    1.0115    1     150.302
483      0.0    1.0115    1     171.128
484      0.0    1.0041    1     170.826
485      0.0    1.0115    1     170.525
